# opening (nm)  gray_line contact_angle_out_180 contact_angle_out_40 contact_angle_out_20
1.700000 246.504028 245.152334 256.189681 266.412264
2.238384 252.755741 251.666589 260.142224 267.884720
2.776768 256.583181 255.654762 262.562061 268.786190
3.315152 259.167461 258.347570 264.195930 269.394862
3.853535 261.029632 260.287944 265.373257 269.833456
4.391919 262.435255 261.752596 266.261939 270.164520
4.930303 263.533893 262.897371 266.956535 270.423281
5.468687 264.416212 263.816744 267.514367 270.631092
6.007071 265.140376 264.571319 267.972208 270.801653
6.545455 265.745410 265.201761 268.354731 270.944156
7.083838 266.258477 265.736375 268.679109 271.064998
7.622222 266.699065 266.195465 268.957663 271.168769
8.160606 267.081518 266.593979 269.199463 271.258847
8.698990 267.416631 266.943165 269.411333 271.337776
9.237374 267.712681 267.251648 269.598506 271.407504
9.775758 267.976122 267.526153 269.765062 271.469552
10.314141 268.212061 267.771999 269.914230 271.525122
10.852525 268.424590 267.993454 270.048599 271.575179
11.390909 268.617029 268.193974 270.170265 271.620504
11.929293 268.792098 268.376396 270.280950 271.661738
12.467677 268.952048 268.543062 270.382075 271.699410
13.006061 269.098755 268.695930 270.474828 271.733964
13.544444 269.233799 268.836645 270.560207 271.765771
14.082828 269.358517 268.966601 270.639059 271.795145
14.621212 269.474051 269.086987 270.712103 271.822357
15.159596 269.581379 269.198822 270.779959 271.847636
15.697980 269.681345 269.302986 270.843161 271.871180
16.236364 269.774681 269.400242 270.902171 271.893164
16.774747 269.862026 269.491255 270.957394 271.913736
17.313131 269.943938 269.576607 271.009182 271.933029
17.851515 270.020910 269.656812 271.057846 271.951158
18.389899 270.093375 269.732320 271.103661 271.968225
18.928283 270.161718 269.803532 271.146869 271.984322
19.466667 270.226280 269.870806 271.187688 271.999528
20.005051 270.287368 269.934459 271.226309 272.013916
20.543434 270.345253 269.994775 271.262906 272.027550
21.081818 270.400182 270.052011 271.297634 272.040487
21.620202 270.452375 270.106396 271.330633 272.052780
22.158586 270.502032 270.158138 271.362027 272.064476
22.696970 270.549334 270.207426 271.391933 272.075616
23.235354 270.594443 270.254430 271.420452 272.086241
23.773737 270.637509 270.299304 271.447680 272.096384
24.312121 270.678668 270.342192 271.473702 272.106078
24.850505 270.718043 270.383221 271.498597 272.115352
25.388889 270.755748 270.422509 271.522435 272.124233
25.927273 270.791888 270.460167 271.545284 272.132745
26.465657 270.826557 270.496292 271.567203 272.140910
27.004040 270.859844 270.530976 271.588248 272.148750
27.542424 270.891829 270.564305 271.608470 272.156284
28.080808 270.922588 270.596355 271.627917 272.163528
28.619192 270.952190 270.627200 271.646632 272.170501
29.157576 270.980698 270.656906 271.664656 272.177215
29.695960 271.008173 270.685534 271.682026 272.183686
30.234343 271.034669 270.713143 271.698778 272.189927
30.772727 271.060238 270.739786 271.714944 272.195949
31.311111 271.084928 270.765513 271.730554 272.201764
31.849495 271.108783 270.790370 271.745636 272.207383
32.387879 271.131845 270.814400 271.760216 272.212815
32.926263 271.154153 270.837645 271.774320 272.218069
33.464646 271.175743 270.860142 271.787970 272.223154
34.003030 271.196650 270.881926 271.801188 272.228078
34.541414 271.216904 270.903031 271.813993 272.232848
35.079798 271.236537 270.923489 271.826406 272.237472
35.618182 271.255577 270.943328 271.838443 272.241957
36.156566 271.274049 270.962576 271.850122 272.246308
36.694949 271.291979 270.981259 271.861458 272.250531
37.233333 271.309391 270.999402 271.872467 272.254632
37.771717 271.326307 271.017028 271.883161 272.258616
38.310101 271.342747 271.034159 271.893555 272.262488
38.848485 271.358731 271.050814 271.903661 272.266253
39.386869 271.374278 271.067015 271.913491 272.269914
39.925253 271.389406 271.082778 271.923055 272.273477
40.463636 271.404132 271.098122 271.932365 272.276946
41.002020 271.418471 271.113063 271.941431 272.280323
41.540404 271.432438 271.127616 271.950261 272.283613
42.078788 271.446047 271.141798 271.958866 272.286818
42.617172 271.459313 271.155621 271.967253 272.289943
43.155556 271.472248 271.169099 271.975430 272.292989
43.693939 271.484864 271.182245 271.983407 272.295961
44.232323 271.497173 271.195070 271.991189 272.298860
44.770707 271.509186 271.207588 271.998784 272.301689
45.309091 271.520914 271.219808 272.006198 272.304451
45.847475 271.532366 271.231741 272.013439 272.307148
46.385859 271.543552 271.243397 272.020511 272.309783
46.924242 271.554481 271.254785 272.027421 272.312357
47.462626 271.565163 271.265915 272.034174 272.314873
48.001010 271.575605 271.276796 272.040776 272.317332
48.539394 271.585815 271.287435 272.047231 272.319737
49.077778 271.595801 271.297840 272.053545 272.322089
49.616162 271.605571 271.308020 272.059722 272.324390
50.154545 271.615131 271.317981 272.065766 272.326642
50.692929 271.624487 271.327731 272.071681 272.328846
51.231313 271.633647 271.337276 272.077473 272.331003
51.769697 271.642617 271.346622 272.083143 272.333116
52.308081 271.651402 271.355776 272.088698 272.335185
52.846465 271.660008 271.364743 272.094138 272.337212
53.384848 271.668440 271.373530 272.099470 272.339198
53.923232 271.676704 271.382141 272.104694 272.341144
54.461616 271.684805 271.390582 272.109816 272.343052
55.000000 271.692747 271.398857 272.114837 272.344923
