# opening (nm) Thet_gray_line
1.700000 246.504028
1.878261 248.970872
2.056522 251.010060
2.234783 252.723930
2.413043 254.184580
2.591304 255.444268
2.769565 256.541798
2.947826 257.506588
3.126087 258.361347
3.304348 259.123882
3.482609 259.808355
3.660870 260.426168
3.839130 260.986609
4.017391 261.497313
4.195652 261.964621
4.373913 262.393838
4.552174 262.789439
4.730435 263.155224
4.908696 263.494443
5.086957 263.809887
5.265217 264.103971
5.443478 264.378795
5.621739 264.636189
5.800000 264.877762
5.978261 265.104928
6.156522 265.318939
6.334783 265.520906
6.513043 265.711816
6.691304 265.892555
6.869565 266.063914
7.047826 266.226605
7.226087 266.381268
7.404348 266.528485
7.582609 266.668779
7.760870 266.802629
7.939130 266.930468
8.117391 267.052692
8.295652 267.169664
8.473913 267.281714
8.652174 267.389147
8.830435 267.492242
9.008696 267.591257
9.186957 267.686430
9.365217 267.777980
9.543478 267.866109
9.721739 267.951007
9.900000 268.032847
10.078261 268.111793
10.256522 268.187994
10.434783 268.261591
10.613043 268.332716
10.791304 268.401492
10.969565 268.468032
11.147826 268.532444
11.326087 268.594828
11.504348 268.655279
11.682609 268.713886
11.860870 268.770730
12.039130 268.825892
12.217391 268.879443
12.395652 268.931455
12.573913 268.981991
12.752174 269.031115
12.930435 269.078885
13.108696 269.125355
13.286957 269.170578
13.465217 269.214604
13.643478 269.257479
13.821739 269.299249
14.000000 269.339954
14.178261 269.379636
14.356522 269.418333
14.534783 269.456081
14.713043 269.492914
14.891304 269.528865
15.069565 269.563965
15.247826 269.598245
15.426087 269.631732
15.604348 269.664455
15.782609 269.696438
15.960870 269.727707
16.139130 269.758285
16.317391 269.788195
16.495652 269.817458
16.673913 269.846096
16.852174 269.874128
17.030435 269.901573
17.208696 269.928450
17.386957 269.954775
17.565217 269.980566
17.743478 270.005839
17.921739 270.030609
18.100000 270.054891
18.278261 270.078700
18.456522 270.102048
18.634783 270.124950
18.813043 270.147418
18.991304 270.169464
19.169565 270.191101
19.347826 270.212338
19.526087 270.233188
19.704348 270.253660
19.882609 270.273765
20.060870 270.293513
20.239130 270.312914
20.417391 270.331975
20.595652 270.350706
20.773913 270.369116
20.952174 270.387213
21.130435 270.405004
21.308696 270.422498
21.486957 270.439701
21.665217 270.456622
21.843478 270.473266
22.021739 270.489641
22.200000 270.505752
22.378261 270.521607
22.556522 270.537212
22.734783 270.552572
22.913043 270.567692
23.091304 270.582580
23.269565 270.597239
23.447826 270.611675
23.626087 270.625893
23.804348 270.639899
23.982609 270.653696
24.160870 270.667290
24.339130 270.680685
24.517391 270.693884
24.695652 270.706894
24.873913 270.719716
25.052174 270.732357
25.230435 270.744818
25.408696 270.757105
25.586957 270.769221
25.765217 270.781169
25.943478 270.792952
26.121739 270.804575
26.300000 270.816041
26.478261 270.827352
26.656522 270.838512
26.834783 270.849523
27.013043 270.860389
27.191304 270.871113
27.369565 270.881697
27.547826 270.892144
27.726087 270.902456
27.904348 270.912637
28.082609 270.922689
28.260870 270.932614
28.439130 270.942414
28.617391 270.952093
28.795652 270.961651
28.973913 270.971092
29.152174 270.980417
29.330435 270.989629
29.508696 270.998730
29.686957 271.007722
29.865217 271.016606
30.043478 271.025384
30.221739 271.034060
30.400000 271.042633
30.578261 271.051106
30.756522 271.059482
30.934783 271.067760
31.113043 271.075944
31.291304 271.084035
31.469565 271.092034
31.647826 271.099943
31.826087 271.107763
32.004348 271.115496
32.182609 271.123143
32.360870 271.130707
32.539130 271.138187
32.717391 271.145586
32.895652 271.152904
33.073913 271.160144
33.252174 271.167306
33.430435 271.174392
33.608696 271.181402
33.786957 271.188339
33.965217 271.195203
34.143478 271.201995
34.321739 271.208716
34.500000 271.215369
34.678261 271.221952
34.856522 271.228469
35.034783 271.234919
35.213043 271.241303
35.391304 271.247624
35.569565 271.253881
35.747826 271.260076
35.926087 271.266209
36.104348 271.272281
36.282609 271.278294
36.460870 271.284249
36.639130 271.290145
36.817391 271.295984
36.995652 271.301767
37.173913 271.307494
37.352174 271.313167
37.530435 271.318786
37.708696 271.324351
37.886957 271.329865
38.065217 271.335327
38.243478 271.340737
38.421739 271.346098
38.600000 271.351409
38.778261 271.356671
38.956522 271.361885
39.134783 271.367052
39.313043 271.372172
39.491304 271.377245
39.669565 271.382273
39.847826 271.387256
40.026087 271.392194
40.204348 271.397089
40.382609 271.401941
40.560870 271.406750
40.739130 271.411516
40.917391 271.416242
41.095652 271.420926
41.273913 271.425570
41.452174 271.430174
41.630435 271.434738
41.808696 271.439264
41.986957 271.443751
42.165217 271.448200
42.343478 271.452612
42.521739 271.456986
42.700000 271.461325
42.878261 271.465627
43.056522 271.469893
43.234783 271.474124
43.413043 271.478321
43.591304 271.482483
43.769565 271.486612
43.947826 271.490706
44.126087 271.494768
44.304348 271.498797
44.482609 271.502794
44.660870 271.506759
44.839130 271.510692
45.017391 271.514594
45.195652 271.518466
45.373913 271.522307
45.552174 271.526118
45.730435 271.529899
45.908696 271.533651
46.086957 271.537374
46.265217 271.541068
46.443478 271.544734
46.621739 271.548371
46.800000 271.551981
46.978261 271.555564
47.156522 271.559120
47.334783 271.562648
47.513043 271.566151
47.691304 271.569627
47.869565 271.573077
48.047826 271.576502
48.226087 271.579901
48.404348 271.583275
48.582609 271.586625
48.760870 271.589950
48.939130 271.593251
49.117391 271.596527
49.295652 271.599781
49.473913 271.603010
49.652174 271.606217
49.830435 271.609400
50.008696 271.612561
50.186957 271.615700
50.365217 271.618816
50.543478 271.621910
50.721739 271.624982
50.900000 271.628033
51.078261 271.631063
51.256522 271.634072
51.434783 271.637059
51.613043 271.640026
51.791304 271.642973
51.969565 271.645900
52.147826 271.648806
52.326087 271.651693
52.504348 271.654560
52.682609 271.657407
52.860870 271.660236
53.039130 271.663045
53.217391 271.665836
53.395652 271.668608
53.573913 271.671361
53.752174 271.674096
53.930435 271.676814
54.108696 271.679513
54.286957 271.682194
54.465217 271.684858
54.643478 271.687505
54.821739 271.690134
55.000000 271.692747
